Data Set 1:Wavelength(nm),Data Set 1:Absorbance,Data Set 2:Wavelength(nm),Data Set 2:Absorbance
220.0,0.015,220.0,3.000
220.6,-0.002,220.6,3.000
221.3,-0.030,221.3,3.000
221.9,-0.058,221.9,3.000
222.6,-0.080,222.6,3.000
223.2,-0.107,223.2,3.000
223.9,-0.131,223.9,3.000
224.5,-0.160,224.5,3.000
225.2,-0.187,225.2,3.000
225.8,-0.212,225.8,3.000
226.5,-0.239,226.5,3.000
227.1,-0.265,227.1,3.000
227.8,-0.291,227.8,3.000
228.4,-0.315,228.4,3.000
229.1,-0.337,229.1,3.000
229.7,-0.361,229.7,3.000
230.4,-0.384,230.4,3.000
231.0,-0.408,231.0,3.000
231.7,-0.430,231.7,3.000
232.3,-0.448,232.3,3.000
233.0,-0.467,233.0,3.000
233.6,-0.484,233.6,1.803
234.3,-0.500,234.3,1.210
234.9,-0.515,234.9,0.919
235.6,-0.526,235.6,0.716
236.2,-0.536,236.2,0.560
236.9,-0.544,236.9,0.427
237.5,-0.554,237.5,0.309
238.2,-0.560,238.2,0.203
238.8,-0.566,238.8,0.112
239.5,-0.567,239.5,0.036
240.1,-0.567,240.1,-0.026
240.8,-0.562,240.8,-0.077
241.4,-0.554,241.4,-0.116
242.0,-0.545,242.0,-0.145
242.7,-0.535,242.7,-0.168
243.3,-0.525,243.3,-0.184
244.0,-0.515,244.0,-0.199
244.6,-0.504,244.6,-0.210
245.3,-0.495,245.3,-0.221
245.9,-0.483,245.9,-0.227
246.6,-0.471,246.6,-0.232
247.2,-0.461,247.2,-0.235
247.9,-0.451,247.9,-0.237
248.5,-0.440,248.5,-0.238
249.2,-0.427,249.2,-0.235
249.8,-0.408,249.8,-0.226
250.5,-0.385,250.5,-0.212
251.1,-0.359,251.1,-0.194
251.8,-0.332,251.8,-0.174
252.4,-0.303,252.4,-0.152
253.1,-0.275,253.1,-0.131
253.7,-0.250,253.7,-0.111
254.4,-0.229,254.4,-0.095
255.0,-0.210,255.0,-0.079
255.7,-0.194,255.7,-0.066
256.3,-0.179,256.3,-0.054
257.0,-0.167,257.0,-0.046
257.6,-0.156,257.6,-0.038
258.3,-0.149,258.3,-0.034
258.9,-0.142,258.9,-0.029
259.6,-0.135,259.6,-0.027
260.2,-0.131,260.2,-0.027
260.9,-0.126,260.9,-0.027
261.5,-0.123,261.5,-0.026
262.2,-0.119,262.2,-0.024
262.8,-0.117,262.8,-0.024
263.5,-0.115,263.5,-0.027
264.1,-0.115,264.1,-0.029
264.8,-0.114,264.8,-0.032
265.4,-0.113,265.4,-0.033
266.1,-0.110,266.1,-0.034
266.7,-0.108,266.7,-0.036
267.4,-0.107,267.4,-0.039
268.0,-0.106,268.0,-0.042
268.7,-0.106,268.7,-0.045
269.3,-0.105,269.3,-0.047
270.0,-0.105,270.0,-0.049
270.6,-0.106,270.6,-0.053
271.3,-0.106,271.3,-0.056
271.9,-0.105,271.9,-0.059
272.6,-0.106,272.6,-0.062
273.2,-0.108,273.2,-0.067
273.8,-0.109,273.8,-0.071
274.5,-0.110,274.5,-0.073
275.1,-0.109,275.1,-0.075
275.8,-0.110,275.8,-0.078
276.4,-0.110,276.4,-0.081
277.1,-0.110,277.1,-0.082
277.8,-0.110,277.8,-0.083
278.4,-0.111,278.4,-0.085
279.0,-0.112,279.0,-0.086
279.7,-0.112,279.7,-0.088
280.3,-0.113,280.3,-0.088
280.9,-0.113,280.9,-0.089
281.6,-0.113,281.6,-0.089
282.2,-0.114,282.2,-0.089
282.9,-0.114,282.9,-0.088
283.5,-0.115,283.5,-0.087
284.1,-0.113,284.1,-0.086
284.8,-0.113,284.8,-0.084
285.4,-0.111,285.4,-0.083
286.1,-0.110,286.1,-0.082
286.7,-0.109,286.7,-0.081
287.3,-0.108,287.3,-0.079
288.0,-0.108,288.0,-0.078
288.6,-0.107,288.6,-0.077
289.3,-0.108,289.3,-0.077
289.9,-0.109,289.9,-0.076
290.5,-0.108,290.5,-0.076
291.2,-0.109,291.2,-0.076
291.8,-0.108,291.8,-0.075
292.5,-0.108,292.5,-0.073
293.1,-0.106,293.1,-0.070
293.7,-0.105,293.7,-0.067
294.4,-0.102,294.4,-0.065
295.0,-0.098,295.0,-0.060
295.7,-0.094,295.7,-0.056
296.3,-0.091,296.3,-0.052
296.9,-0.087,296.9,-0.048
297.6,-0.083,297.6,-0.044
298.2,-0.080,298.2,-0.040
298.9,-0.078,298.9,-0.037
299.5,-0.075,299.5,-0.034
300.1,-0.073,300.1,-0.031
300.8,-0.072,300.8,-0.029
301.4,-0.070,301.4,-0.027
302.0,-0.069,302.0,-0.025
302.7,-0.068,302.7,-0.025
303.3,-0.068,303.3,-0.024
304.0,-0.067,304.0,-0.024
304.6,-0.067,304.6,-0.023
305.2,-0.067,305.2,-0.023
305.9,-0.066,305.9,-0.020
306.5,-0.065,306.5,-0.019
307.2,-0.065,307.2,-0.018
307.8,-0.065,307.8,-0.017
308.4,-0.065,308.4,-0.016
309.1,-0.064,309.1,-0.015
309.7,-0.064,309.7,-0.015
310.4,-0.065,310.4,-0.016
311.0,-0.066,311.0,-0.015
311.6,-0.066,311.6,-0.015
312.3,-0.064,312.3,-0.015
312.9,-0.064,312.9,-0.015
313.6,-0.064,313.6,-0.016
314.2,-0.066,314.2,-0.016
314.8,-0.066,314.8,-0.016
315.5,-0.066,315.5,-0.016
316.1,-0.065,316.1,-0.016
316.8,-0.065,316.8,-0.015
317.4,-0.064,317.4,-0.014
318.0,-0.065,318.0,-0.015
318.7,-0.065,318.7,-0.017
319.3,-0.065,319.3,-0.017
320.0,-0.063,320.0,-0.016
320.6,-0.064,320.6,-0.016
321.2,-0.064,321.2,-0.017
321.9,-0.064,321.9,-0.017
322.5,-0.063,322.5,-0.016
323.1,-0.062,323.1,-0.014
323.8,-0.061,323.8,-0.013
324.4,-0.060,324.4,-0.013
325.1,-0.058,325.1,-0.010
325.7,-0.055,325.7,-0.008
326.3,-0.052,326.3,-0.005
327.0,-0.050,327.0,-0.004
327.6,-0.051,327.6,-0.005
328.3,-0.053,328.3,-0.006
328.9,-0.059,328.9,-0.010
329.5,-0.065,329.5,-0.016
330.2,-0.071,330.2,-0.023
330.8,-0.074,330.8,-0.026
331.5,-0.074,331.5,-0.027
332.1,-0.072,332.1,-0.025
332.8,-0.068,332.8,-0.022
333.4,-0.065,333.4,-0.019
334.1,-0.063,334.1,-0.016
334.8,-0.063,334.8,-0.016
335.4,-0.063,335.4,-0.016
336.1,-0.063,336.1,-0.017
336.8,-0.061,336.8,-0.017
337.5,-0.061,337.5,-0.019
338.1,-0.060,338.1,-0.020
338.8,-0.060,338.8,-0.021
339.5,-0.058,339.5,-0.018
340.2,-0.058,340.2,-0.019
340.8,-0.059,340.8,-0.020
341.5,-0.060,341.5,-0.022
342.2,-0.059,342.2,-0.020
342.9,-0.059,342.9,-0.020
343.5,-0.060,343.5,-0.021
344.2,-0.060,344.2,-0.022
344.9,-0.059,344.9,-0.022
345.6,-0.059,345.6,-0.022
346.2,-0.060,346.2,-0.022
346.9,-0.061,346.9,-0.024
347.6,-0.061,347.6,-0.024
348.3,-0.059,348.3,-0.023
348.9,-0.058,348.9,-0.023
349.6,-0.057,349.6,-0.023
350.3,-0.059,350.3,-0.026
351.0,-0.058,351.0,-0.025
351.6,-0.059,351.6,-0.027
352.3,-0.059,352.3,-0.027
353.0,-0.060,353.0,-0.028
353.7,-0.061,353.7,-0.028
354.3,-0.060,354.3,-0.028
355.0,-0.060,355.0,-0.028
355.7,-0.059,355.7,-0.029
356.4,-0.060,356.4,-0.031
357.0,-0.059,357.0,-0.031
357.7,-0.059,357.7,-0.032
358.4,-0.059,358.4,-0.032
359.1,-0.058,359.1,-0.032
359.7,-0.058,359.7,-0.032
360.4,-0.057,360.4,-0.031
361.1,-0.057,361.1,-0.033
361.8,-0.057,361.8,-0.034
362.4,-0.058,362.4,-0.035
363.1,-0.057,363.1,-0.034
363.7,-0.057,363.7,-0.034
364.4,-0.057,364.4,-0.034
365.0,-0.057,365.0,-0.036
365.7,-0.057,365.7,-0.036
366.4,-0.058,366.4,-0.037
367.0,-0.057,367.0,-0.037
367.7,-0.056,367.7,-0.038
368.3,-0.056,368.3,-0.038
369.0,-0.056,369.0,-0.039
369.7,-0.057,369.7,-0.040
370.3,-0.056,370.3,-0.039
371.0,-0.057,371.0,-0.040
371.6,-0.056,371.6,-0.039
372.3,-0.056,372.3,-0.040
372.9,-0.056,372.9,-0.040
373.6,-0.057,373.6,-0.040
374.3,-0.058,374.3,-0.041
374.9,-0.058,374.9,-0.042
375.6,-0.057,375.6,-0.042
376.2,-0.056,376.2,-0.043
376.9,-0.057,376.9,-0.044
377.6,-0.056,377.6,-0.044
378.2,-0.056,378.2,-0.044
378.9,-0.055,378.9,-0.043
379.5,-0.054,379.5,-0.043
380.2,-0.054,380.2,-0.043
380.8,-0.055,380.8,-0.045
381.5,-0.054,381.5,-0.045
382.2,-0.056,382.2,-0.047
382.8,-0.056,382.8,-0.049
383.5,-0.057,383.5,-0.051
384.1,-0.056,384.1,-0.049
384.8,-0.056,384.8,-0.047
385.5,-0.054,385.5,-0.047
386.1,-0.054,386.1,-0.048
386.8,-0.055,386.8,-0.050
387.4,-0.056,387.4,-0.051
388.1,-0.056,388.1,-0.051
388.7,-0.055,388.7,-0.051
389.4,-0.054,389.4,-0.050
390.1,-0.054,390.1,-0.050
390.7,-0.054,390.7,-0.051
391.4,-0.054,391.4,-0.051
392.0,-0.054,392.0,-0.052
392.7,-0.053,392.7,-0.051
393.4,-0.053,393.4,-0.052
394.0,-0.053,394.0,-0.052
394.7,-0.053,394.7,-0.052
395.3,-0.053,395.3,-0.052
396.0,-0.052,396.0,-0.053
396.6,-0.052,396.6,-0.053
397.3,-0.051,397.3,-0.053
398.0,-0.052,398.0,-0.054
398.6,-0.053,398.6,-0.053
399.3,-0.054,399.3,-0.054
399.9,-0.054,399.9,-0.054
400.6,-0.054,400.6,-0.055
401.3,-0.055,401.3,-0.055
401.9,-0.054,401.9,-0.055
402.6,-0.053,402.6,-0.055
403.2,-0.052,403.2,-0.055
403.9,-0.053,403.9,-0.056
404.5,-0.053,404.5,-0.057
405.2,-0.052,405.2,-0.056
405.9,-0.052,405.9,-0.056
406.5,-0.053,406.5,-0.056
407.2,-0.055,407.2,-0.058
407.8,-0.056,407.8,-0.058
408.5,-0.056,408.5,-0.059
409.2,-0.055,409.2,-0.059
409.8,-0.052,409.8,-0.057
410.5,-0.053,410.5,-0.055
411.1,-0.052,411.1,-0.056
411.8,-0.054,411.8,-0.058
412.4,-0.054,412.4,-0.060
413.1,-0.055,413.1,-0.060
413.8,-0.055,413.8,-0.060
414.4,-0.056,414.4,-0.061
415.1,-0.056,415.1,-0.061
415.8,-0.056,415.8,-0.062
416.4,-0.055,416.4,-0.062
417.1,-0.056,417.1,-0.063
417.7,-0.056,417.7,-0.064
418.4,-0.055,418.4,-0.063
419.1,-0.054,419.1,-0.062
419.7,-0.053,419.7,-0.060
420.4,-0.053,420.4,-0.060
421.0,-0.052,421.0,-0.059
421.7,-0.053,421.7,-0.061
422.4,-0.056,422.4,-0.063
423.0,-0.059,423.0,-0.065
423.7,-0.057,423.7,-0.065
424.3,-0.055,424.3,-0.063
425.0,-0.054,425.0,-0.063
425.7,-0.057,425.7,-0.065
426.3,-0.056,426.3,-0.064
427.0,-0.055,427.0,-0.062
427.6,-0.051,427.6,-0.060
428.3,-0.053,428.3,-0.062
429.0,-0.054,429.0,-0.064
429.6,-0.056,429.6,-0.066
430.3,-0.056,430.3,-0.064
430.9,-0.057,430.9,-0.064
431.6,-0.057,431.6,-0.063
432.3,-0.058,432.3,-0.065
432.9,-0.057,432.9,-0.064
433.6,-0.058,433.6,-0.065
434.2,-0.058,434.2,-0.064
434.9,-0.058,434.9,-0.063
435.6,-0.057,435.6,-0.063
436.2,-0.058,436.2,-0.064
436.9,-0.061,436.9,-0.067
437.5,-0.061,437.5,-0.067
438.2,-0.059,438.2,-0.065
438.9,-0.056,438.9,-0.063
439.5,-0.056,439.5,-0.064
440.2,-0.057,440.2,-0.066
440.8,-0.059,440.8,-0.066
441.5,-0.059,441.5,-0.066
442.2,-0.060,442.2,-0.068
442.8,-0.057,442.8,-0.067
443.5,-0.058,443.5,-0.067
444.1,-0.059,444.1,-0.068
444.8,-0.060,444.8,-0.069
445.5,-0.059,445.5,-0.069
446.1,-0.057,446.1,-0.067
446.8,-0.058,446.8,-0.068
447.4,-0.060,447.4,-0.068
448.1,-0.060,448.1,-0.069
448.8,-0.060,448.8,-0.069
449.4,-0.060,449.4,-0.070
450.1,-0.061,450.1,-0.070
450.8,-0.062,450.8,-0.071
451.4,-0.062,451.4,-0.071
452.1,-0.063,452.1,-0.071
452.7,-0.061,452.7,-0.071
453.4,-0.061,453.4,-0.071
454.1,-0.060,454.1,-0.070
454.7,-0.060,454.7,-0.070
455.4,-0.059,455.4,-0.069
456.0,-0.061,456.0,-0.071
456.7,-0.061,456.7,-0.070
457.4,-0.063,457.4,-0.070
458.0,-0.063,458.0,-0.070
458.7,-0.065,458.7,-0.072
459.3,-0.066,459.3,-0.074
460.0,-0.065,460.0,-0.074
460.7,-0.063,460.7,-0.072
461.3,-0.061,461.3,-0.071
462.0,-0.062,462.0,-0.070
462.6,-0.063,462.6,-0.071
463.3,-0.063,463.3,-0.073
464.0,-0.064,464.0,-0.075
464.6,-0.066,464.6,-0.074
465.3,-0.065,465.3,-0.073
465.9,-0.066,465.9,-0.074
466.6,-0.068,466.6,-0.076
467.3,-0.071,467.3,-0.079
467.9,-0.072,467.9,-0.080
468.6,-0.071,468.6,-0.079
469.2,-0.070,469.2,-0.078
469.9,-0.068,469.9,-0.076
470.6,-0.069,470.6,-0.078
471.2,-0.069,471.2,-0.079
471.9,-0.070,471.9,-0.078
472.5,-0.069,472.5,-0.076
473.2,-0.070,473.2,-0.074
473.9,-0.070,473.9,-0.075
474.5,-0.069,474.5,-0.075
475.2,-0.068,475.2,-0.077
475.8,-0.068,475.8,-0.078
476.5,-0.069,476.5,-0.080
477.2,-0.071,477.2,-0.079
477.8,-0.072,477.8,-0.079
478.5,-0.074,478.5,-0.080
479.1,-0.073,479.1,-0.081
479.8,-0.074,479.8,-0.082
480.5,-0.075,480.5,-0.083
481.1,-0.077,481.1,-0.084
481.8,-0.071,481.8,-0.081
482.4,-0.059,482.4,-0.070
483.1,-0.055,483.1,-0.067
483.8,-0.057,483.8,-0.068
484.4,-0.070,484.4,-0.079
485.1,-0.072,485.1,-0.081
485.7,-0.072,485.7,-0.082
486.4,-0.072,486.4,-0.082
487.0,-0.072,487.0,-0.082
487.7,-0.072,487.7,-0.082
488.3,-0.072,488.3,-0.081
489.0,-0.072,489.0,-0.082
489.7,-0.072,489.7,-0.082
490.3,-0.072,490.3,-0.083
491.0,-0.074,491.0,-0.083
491.6,-0.077,491.6,-0.085
492.3,-0.075,492.3,-0.084
492.9,-0.074,492.9,-0.083
493.6,-0.073,493.6,-0.082
494.2,-0.075,494.2,-0.083
494.9,-0.073,494.9,-0.081
495.5,-0.073,495.5,-0.082
496.2,-0.073,496.2,-0.082
496.8,-0.076,496.8,-0.084
497.5,-0.075,497.5,-0.084
498.2,-0.074,498.2,-0.083
498.8,-0.073,498.8,-0.083
499.5,-0.072,499.5,-0.081
500.1,-0.074,500.1,-0.082
500.8,-0.075,500.8,-0.083
501.4,-0.076,501.4,-0.085
502.1,-0.077,502.1,-0.084
502.7,-0.076,502.7,-0.083
503.4,-0.076,503.4,-0.084
504.0,-0.076,504.0,-0.085
504.7,-0.078,504.7,-0.086
505.3,-0.078,505.3,-0.087
506.0,-0.077,506.0,-0.086
506.7,-0.077,506.7,-0.086
507.3,-0.076,507.3,-0.085
508.0,-0.077,508.0,-0.085
508.6,-0.077,508.6,-0.085
509.3,-0.078,509.3,-0.086
509.9,-0.079,509.9,-0.086
510.6,-0.079,510.6,-0.087
511.2,-0.080,511.2,-0.087
511.9,-0.079,511.9,-0.088
512.5,-0.080,512.5,-0.087
513.2,-0.081,513.2,-0.087
513.8,-0.081,513.8,-0.087
514.5,-0.081,514.5,-0.088
515.2,-0.080,515.2,-0.088
515.8,-0.082,515.8,-0.089
516.5,-0.082,516.5,-0.089
517.1,-0.084,517.1,-0.090
517.8,-0.082,517.8,-0.089
518.4,-0.082,518.4,-0.089
519.1,-0.081,519.1,-0.089
519.7,-0.082,519.7,-0.090
520.4,-0.081,520.4,-0.089
521.0,-0.082,521.0,-0.089
521.7,-0.081,521.7,-0.090
522.3,-0.082,522.3,-0.091
523.0,-0.082,523.0,-0.091
523.7,-0.083,523.7,-0.091
524.3,-0.083,524.3,-0.091
525.0,-0.083,525.0,-0.091
525.6,-0.081,525.6,-0.090
526.3,-0.081,526.3,-0.090
526.9,-0.082,526.9,-0.091
527.6,-0.084,527.6,-0.092
528.2,-0.084,528.2,-0.092
528.9,-0.083,528.9,-0.091
529.5,-0.082,529.5,-0.090
530.2,-0.083,530.2,-0.091
530.8,-0.083,530.8,-0.091
531.5,-0.082,531.5,-0.091
532.2,-0.081,532.2,-0.090
532.8,-0.081,532.8,-0.091
533.5,-0.081,533.5,-0.091
534.1,-0.081,534.1,-0.090
534.8,-0.081,534.8,-0.090
535.4,-0.081,535.4,-0.090
536.1,-0.081,536.1,-0.090
536.8,-0.082,536.8,-0.091
537.4,-0.081,537.4,-0.090
538.1,-0.081,538.1,-0.091
538.8,-0.081,538.8,-0.091
539.5,-0.081,539.5,-0.091
540.2,-0.081,540.2,-0.090
540.8,-0.081,540.8,-0.090
541.5,-0.081,541.5,-0.090
542.2,-0.082,542.2,-0.091
542.9,-0.082,542.9,-0.090
543.6,-0.082,543.6,-0.090
544.2,-0.080,544.2,-0.089
544.9,-0.081,544.9,-0.090
545.6,-0.081,545.6,-0.091
546.3,-0.082,546.3,-0.092
547.0,-0.082,547.0,-0.092
547.6,-0.082,547.6,-0.092
548.3,-0.082,548.3,-0.091
549.0,-0.081,549.0,-0.090
549.7,-0.080,549.7,-0.089
550.4,-0.080,550.4,-0.089
551.0,-0.080,551.0,-0.090
551.7,-0.080,551.7,-0.090
552.4,-0.081,552.4,-0.089
553.1,-0.082,553.1,-0.089
553.8,-0.081,553.8,-0.089
554.4,-0.081,554.4,-0.090
555.1,-0.080,555.1,-0.089
555.8,-0.079,555.8,-0.089
556.5,-0.079,556.5,-0.088
557.2,-0.079,557.2,-0.088
557.8,-0.080,557.8,-0.088
558.5,-0.081,558.5,-0.089
559.2,-0.081,559.2,-0.089
559.9,-0.082,559.9,-0.090
560.6,-0.084,560.6,-0.091
561.2,-0.083,561.2,-0.090
561.9,-0.082,561.9,-0.089
562.6,-0.080,562.6,-0.089
563.3,-0.081,563.3,-0.089
564.0,-0.080,564.0,-0.089
564.6,-0.080,564.6,-0.088
565.3,-0.079,565.3,-0.088
566.0,-0.079,566.0,-0.086
566.7,-0.078,566.7,-0.085
567.4,-0.077,567.4,-0.083
568.0,-0.076,568.0,-0.082
568.7,-0.076,568.7,-0.082
569.4,-0.076,569.4,-0.083
570.1,-0.076,570.1,-0.083
570.7,-0.074,570.7,-0.081
571.4,-0.073,571.4,-0.081
572.1,-0.074,572.1,-0.081
572.8,-0.074,572.8,-0.082
573.5,-0.074,573.5,-0.081
574.1,-0.072,574.1,-0.078
574.8,-0.072,574.8,-0.078
575.5,-0.072,575.5,-0.079
576.2,-0.074,576.2,-0.080
576.9,-0.073,576.9,-0.080
577.5,-0.070,577.5,-0.077
578.2,-0.067,578.2,-0.074
578.9,-0.066,578.9,-0.074
579.6,-0.070,579.6,-0.077
580.3,-0.075,580.3,-0.083
580.9,-0.075,580.9,-0.082
581.6,-0.073,581.6,-0.079
582.3,-0.071,582.3,-0.078
583.0,-0.072,583.0,-0.080
583.7,-0.073,583.7,-0.081
584.3,-0.073,584.3,-0.081
585.0,-0.071,585.0,-0.079
585.7,-0.071,585.7,-0.079
586.4,-0.072,586.4,-0.081
587.1,-0.075,587.1,-0.083
587.8,-0.075,587.8,-0.085
588.4,-0.076,588.4,-0.085
589.1,-0.075,589.1,-0.084
589.7,-0.073,589.7,-0.081
590.4,-0.071,590.4,-0.079
591.1,-0.071,591.1,-0.079
591.7,-0.071,591.7,-0.079
592.4,-0.071,592.4,-0.080
593.0,-0.071,593.0,-0.081
593.7,-0.073,593.7,-0.083
594.4,-0.074,594.4,-0.083
595.0,-0.075,595.0,-0.083
595.7,-0.075,595.7,-0.083
596.4,-0.075,596.4,-0.083
597.0,-0.075,597.0,-0.083
597.7,-0.076,597.7,-0.083
598.3,-0.076,598.3,-0.083
599.0,-0.076,599.0,-0.082
599.7,-0.074,599.7,-0.082
600.3,-0.072,600.3,-0.081
601.0,-0.071,601.0,-0.081
601.7,-0.071,601.7,-0.081
602.3,-0.071,602.3,-0.082
603.0,-0.072,603.0,-0.083
603.6,-0.071,603.6,-0.083
604.3,-0.073,604.3,-0.084
605.0,-0.074,605.0,-0.083
605.6,-0.075,605.6,-0.084
606.3,-0.077,606.3,-0.085
607.0,-0.077,607.0,-0.085
607.6,-0.078,607.6,-0.086
608.3,-0.077,608.3,-0.084
608.9,-0.077,608.9,-0.085
609.6,-0.077,609.6,-0.085
610.3,-0.077,610.3,-0.085
610.9,-0.076,610.9,-0.085
611.6,-0.076,611.6,-0.085
612.3,-0.075,612.3,-0.085
612.9,-0.076,612.9,-0.085
613.6,-0.077,613.6,-0.086
614.2,-0.078,614.2,-0.087
614.9,-0.078,614.9,-0.087
615.6,-0.078,615.6,-0.087
616.2,-0.077,616.2,-0.087
616.9,-0.077,616.9,-0.086
617.6,-0.077,617.6,-0.086
618.2,-0.078,618.2,-0.087
618.9,-0.078,618.9,-0.087
619.5,-0.077,619.5,-0.086
620.2,-0.077,620.2,-0.085
620.9,-0.077,620.9,-0.085
621.5,-0.077,621.5,-0.085
622.2,-0.077,622.2,-0.086
622.9,-0.078,622.9,-0.086
623.5,-0.078,623.5,-0.086
624.2,-0.078,624.2,-0.086
624.8,-0.078,624.8,-0.086
625.5,-0.078,625.5,-0.086
626.2,-0.077,626.2,-0.085
626.8,-0.077,626.8,-0.085
627.5,-0.076,627.5,-0.085
628.2,-0.076,628.2,-0.085
628.8,-0.077,628.8,-0.085
629.5,-0.077,629.5,-0.085
630.1,-0.078,630.1,-0.086
630.8,-0.080,630.8,-0.087
631.5,-0.081,631.5,-0.088
632.1,-0.081,632.1,-0.088
632.8,-0.081,632.8,-0.088
633.5,-0.081,633.5,-0.088
634.1,-0.082,634.1,-0.088
634.8,-0.081,634.8,-0.088
635.4,-0.081,635.4,-0.088
636.1,-0.079,636.1,-0.087
636.8,-0.079,636.8,-0.087
637.4,-0.079,637.4,-0.087
638.1,-0.079,638.1,-0.087
638.8,-0.079,638.8,-0.087
639.4,-0.079,639.4,-0.087
640.1,-0.079,640.1,-0.087
640.8,-0.079,640.8,-0.087
641.4,-0.079,641.4,-0.087
642.1,-0.079,642.1,-0.087
642.7,-0.079,642.7,-0.087
643.4,-0.080,643.4,-0.087
644.0,-0.080,644.0,-0.087
644.7,-0.079,644.7,-0.086
645.4,-0.079,645.4,-0.086
646.0,-0.078,646.0,-0.085
646.7,-0.078,646.7,-0.085
647.3,-0.078,647.3,-0.085
648.0,-0.078,648.0,-0.086
648.7,-0.078,648.7,-0.086
649.3,-0.079,649.3,-0.086
650.0,-0.080,650.0,-0.087
650.6,-0.081,650.6,-0.088
651.3,-0.081,651.3,-0.088
651.9,-0.081,651.9,-0.088
652.6,-0.081,652.6,-0.088
653.3,-0.081,653.3,-0.088
653.9,-0.081,653.9,-0.088
654.6,-0.081,654.6,-0.088
655.2,-0.081,655.2,-0.088
655.9,-0.081,655.9,-0.088
656.6,-0.081,656.6,-0.088
657.2,-0.081,657.2,-0.088
657.9,-0.081,657.9,-0.088
658.5,-0.081,658.5,-0.088
659.2,-0.081,659.2,-0.088
659.8,-0.081,659.8,-0.088
660.5,-0.081,660.5,-0.088
661.2,-0.081,661.2,-0.088
661.8,-0.081,661.8,-0.088
662.5,-0.080,662.5,-0.088
663.1,-0.080,663.1,-0.088
663.8,-0.079,663.8,-0.088
664.5,-0.079,664.5,-0.087
665.1,-0.079,665.1,-0.087
665.8,-0.079,665.8,-0.087
666.4,-0.079,666.4,-0.088
667.1,-0.079,667.1,-0.088
667.8,-0.078,667.8,-0.087
668.4,-0.078,668.4,-0.087
669.1,-0.077,669.1,-0.086
669.8,-0.078,669.8,-0.087
670.4,-0.078,670.4,-0.087
671.1,-0.079,671.1,-0.087
671.8,-0.079,671.8,-0.088
672.5,-0.078,672.5,-0.088
673.1,-0.078,673.1,-0.088
673.8,-0.078,673.8,-0.088
674.5,-0.079,674.5,-0.088
675.1,-0.079,675.1,-0.088
675.8,-0.078,675.8,-0.087
676.5,-0.077,676.5,-0.087
677.2,-0.078,677.2,-0.087
677.8,-0.078,677.8,-0.087
678.5,-0.078,678.5,-0.087
679.2,-0.078,679.2,-0.087
679.9,-0.078,679.9,-0.088
680.5,-0.078,680.5,-0.088
681.2,-0.078,681.2,-0.087
681.9,-0.078,681.9,-0.085
682.5,-0.079,682.5,-0.085
683.2,-0.078,683.2,-0.086
683.9,-0.078,683.9,-0.087
684.6,-0.078,684.6,-0.087
685.2,-0.079,685.2,-0.088
685.9,-0.078,685.9,-0.088
686.6,-0.079,686.6,-0.088
687.2,-0.079,687.2,-0.088
687.9,-0.078,687.9,-0.088
688.6,-0.078,688.6,-0.088
689.3,-0.078,689.3,-0.088
689.9,-0.079,689.9,-0.088
690.6,-0.079,690.6,-0.088
691.3,-0.079,691.3,-0.087
692.0,-0.079,692.0,-0.088
692.6,-0.079,692.6,-0.088
693.3,-0.079,693.3,-0.087
694.0,-0.078,694.0,-0.087
694.6,-0.078,694.6,-0.087
695.3,-0.078,695.3,-0.087
696.0,-0.079,696.0,-0.087
696.7,-0.078,696.7,-0.086
697.3,-0.078,697.3,-0.084
698.0,-0.078,698.0,-0.082
698.7,-0.077,698.7,-0.079
699.4,-0.075,699.4,-0.075
700.0,-0.072,700.0,-0.072
700.7,-0.070,700.7,-0.070
701.4,-0.068,701.4,-0.068
702.0,-0.066,702.0,-0.066
702.7,-0.063,702.7,-0.063
703.4,-0.058,703.4,-0.058
704.1,-0.053,704.1,-0.053
704.7,-0.052,704.7,-0.052
705.4,-0.053,705.4,-0.053
706.1,-0.054,706.1,-0.054
706.8,-0.054,706.8,-0.054
707.4,-0.053,707.4,-0.053
708.1,-0.053,708.1,-0.053
708.7,-0.053,708.7,-0.053
709.4,-0.052,709.4,-0.052
710.1,-0.050,710.1,-0.050
710.7,-0.048,710.7,-0.048
711.4,-0.048,711.4,-0.048
712.0,-0.049,712.0,-0.049
712.7,-0.050,712.7,-0.050
713.4,-0.053,713.4,-0.053
714.0,-0.055,714.0,-0.055
714.7,-0.055,714.7,-0.055
715.3,-0.054,715.3,-0.054
716.0,-0.054,716.0,-0.054
716.7,-0.055,716.7,-0.055
717.3,-0.056,717.3,-0.056
718.0,-0.057,718.0,-0.057
718.6,-0.057,718.6,-0.057
719.3,-0.058,719.3,-0.058
720.0,-0.058,720.0,-0.058
720.6,-0.057,720.6,-0.057
721.3,-0.056,721.3,-0.056
721.9,-0.054,721.9,-0.054
722.6,-0.053,722.6,-0.053
723.3,-0.053,723.3,-0.053
723.9,-0.054,723.9,-0.054
724.6,-0.055,724.6,-0.055
725.2,-0.055,725.2,-0.055
725.9,-0.055,725.9,-0.055
726.6,-0.054,726.6,-0.054
727.2,-0.053,727.2,-0.053
727.9,-0.052,727.9,-0.052
728.5,-0.052,728.5,-0.052
729.2,-0.054,729.2,-0.054
729.9,-0.055,729.9,-0.055
730.5,-0.054,730.5,-0.054
731.2,-0.053,731.2,-0.053
731.8,-0.053,731.8,-0.053
732.5,-0.054,732.5,-0.054
733.2,-0.056,733.2,-0.056
733.8,-0.056,733.8,-0.056
734.5,-0.059,734.5,-0.059
735.1,-0.060,735.1,-0.060
735.8,-0.060,735.8,-0.060
736.5,-0.059,736.5,-0.059
737.1,-0.059,737.1,-0.059
737.8,-0.062,737.8,-0.062
738.4,-0.064,738.4,-0.064
739.1,-0.065,739.1,-0.065
739.8,-0.066,739.8,-0.066
740.4,-0.067,740.4,-0.067
741.1,-0.068,741.1,-0.068
741.9,-0.069,741.9,-0.069
742.6,-0.069,742.6,-0.069
743.4,-0.070,743.4,-0.070
744.1,-0.069,744.1,-0.070
744.9,-0.070,744.9,-0.070
745.6,-0.070,745.6,-0.070
746.4,-0.070,746.4,-0.070
747.1,-0.070,747.1,-0.070
747.9,-0.068,747.9,-0.068
748.6,-0.069,748.6,-0.069
749.4,-0.071,749.4,-0.071
750.1,-0.073,750.1,-0.073
750.9,-0.072,750.9,-0.072
751.6,-0.069,751.6,-0.069
752.4,-0.069,752.4,-0.069
753.1,-0.069,753.1,-0.069
753.8,-0.070,753.8,-0.070
754.6,-0.068,754.6,-0.068
755.3,-0.064,755.3,-0.064
756.1,-0.062,756.1,-0.062
756.8,-0.063,756.8,-0.063
757.6,-0.065,757.6,-0.065
758.3,-0.067,758.3,-0.067
759.1,-0.067,759.1,-0.067
759.8,-0.068,759.8,-0.068
760.6,-0.071,760.6,-0.071
761.3,-0.073,761.3,-0.075
762.1,-0.074,762.1,-0.075
762.8,-0.073,762.8,-0.074
763.6,-0.072,763.6,-0.073
764.3,-0.073,764.3,-0.073
765.1,-0.073,765.1,-0.076
765.8,-0.074,765.8,-0.079
766.6,-0.075,766.6,-0.082
767.3,-0.075,767.3,-0.083
768.1,-0.075,768.1,-0.082
768.8,-0.074,768.8,-0.079
769.6,-0.074,769.6,-0.079
770.3,-0.074,770.3,-0.080
771.1,-0.075,771.1,-0.082
771.8,-0.075,771.8,-0.083
772.6,-0.075,772.6,-0.084
773.3,-0.075,773.3,-0.084
774.1,-0.076,774.1,-0.084
774.8,-0.075,774.8,-0.084
775.6,-0.076,775.6,-0.085
776.3,-0.076,776.3,-0.084
777.0,-0.076,777.0,-0.085
777.8,-0.076,777.8,-0.085
778.5,-0.076,778.5,-0.085
779.3,-0.077,779.3,-0.085
780.0,-0.077,780.0,-0.085
780.8,-0.077,780.8,-0.084
781.5,-0.076,781.5,-0.084
782.3,-0.076,782.3,-0.084
783.0,-0.076,783.0,-0.085
783.8,-0.076,783.8,-0.085
784.5,-0.075,784.5,-0.084
785.3,-0.075,785.3,-0.084
786.0,-0.075,786.0,-0.084
786.8,-0.076,786.8,-0.085
787.5,-0.076,787.5,-0.085
788.3,-0.076,788.3,-0.085
789.0,-0.076,789.0,-0.085
789.8,-0.076,789.8,-0.085
790.5,-0.077,790.5,-0.085
791.3,-0.076,791.3,-0.085
792.0,-0.076,792.0,-0.085
792.8,-0.077,792.8,-0.086
793.5,-0.077,793.5,-0.086
794.3,-0.077,794.3,-0.086
795.0,-0.077,795.0,-0.086
795.8,-0.077,795.8,-0.086
796.5,-0.078,796.5,-0.087
797.3,-0.077,797.3,-0.086
798.0,-0.076,798.0,-0.085
798.8,-0.076,798.8,-0.085
799.5,-0.076,799.5,-0.085
800.2,-0.076,800.2,-0.085
801.0,-0.076,801.0,-0.085
801.8,-0.076,801.8,-0.086
802.4,-0.076,802.4,-0.085
803.0,-0.076,803.0,-0.085
803.6,-0.077,803.6,-0.086
804.2,-0.078,804.2,-0.086
804.8,-0.078,804.8,-0.087
805.4,-0.078,805.4,-0.086
806.0,-0.077,806.0,-0.086
806.6,-0.077,806.6,-0.086
807.2,-0.076,807.2,-0.085
807.8,-0.076,807.8,-0.086
808.4,-0.076,808.4,-0.086
809.0,-0.076,809.0,-0.086
809.6,-0.075,809.6,-0.085
810.2,-0.076,810.2,-0.085
810.8,-0.076,810.8,-0.085
811.4,-0.076,811.4,-0.085
812.0,-0.076,812.0,-0.084
812.6,-0.076,812.6,-0.085
813.2,-0.077,813.2,-0.086
813.8,-0.077,813.8,-0.086
814.4,-0.078,814.4,-0.086
815.0,-0.077,815.0,-0.086
815.6,-0.077,815.6,-0.086
816.2,-0.077,816.2,-0.086
816.8,-0.077,816.8,-0.086
817.4,-0.077,817.4,-0.086
818.0,-0.077,818.0,-0.086
818.6,-0.077,818.6,-0.086
819.2,-0.078,819.2,-0.086
819.8,-0.078,819.8,-0.086
820.4,-0.078,820.4,-0.087
821.0,-0.079,821.0,-0.087
821.6,-0.078,821.6,-0.087
822.2,-0.078,822.2,-0.086
822.8,-0.077,822.8,-0.085
823.4,-0.077,823.4,-0.085
824.0,-0.077,824.0,-0.085
824.6,-0.077,824.6,-0.085
825.2,-0.077,825.2,-0.085
825.8,-0.077,825.8,-0.085
826.4,-0.077,826.4,-0.086
827.0,-0.077,827.0,-0.086
827.6,-0.078,827.6,-0.086
828.2,-0.078,828.2,-0.086
828.8,-0.078,828.8,-0.086
829.4,-0.078,829.4,-0.086
830.0,-0.078,830.0,-0.086
830.6,-0.077,830.6,-0.087
831.2,-0.077,831.2,-0.086
831.8,-0.076,831.8,-0.085
832.4,-0.077,832.4,-0.086
833.0,-0.078,833.0,-0.086
833.6,-0.078,833.6,-0.085
834.2,-0.078,834.2,-0.085
834.8,-0.077,834.8,-0.084
835.4,-0.076,835.4,-0.084
836.0,-0.076,836.0,-0.084
836.6,-0.076,836.6,-0.084
837.2,-0.077,837.2,-0.085
837.8,-0.077,837.8,-0.086
838.4,-0.077,838.4,-0.085
839.0,-0.077,839.0,-0.085
839.6,-0.077,839.6,-0.085
840.2,-0.077,840.2,-0.085
840.8,-0.077,840.8,-0.085
841.4,-0.077,841.4,-0.085
842.0,-0.078,842.0,-0.085
842.6,-0.078,842.6,-0.085
843.2,-0.078,843.2,-0.086
843.8,-0.077,843.8,-0.086
844.4,-0.077,844.4,-0.086
845.0,-0.078,845.0,-0.086
845.6,-0.078,845.6,-0.086
846.2,-0.078,846.2,-0.086
846.8,-0.078,846.8,-0.086
847.4,-0.078,847.4,-0.086
848.0,-0.078,848.0,-0.086
848.6,-0.078,848.6,-0.086
849.2,-0.078,849.2,-0.086
849.8,-0.077,849.8,-0.086
850.4,-0.077,850.4,-0.085
851.0,-0.077,851.0,-0.085
851.6,-0.076,851.6,-0.084
852.2,-0.076,852.2,-0.084
852.8,-0.076,852.8,-0.084
853.4,-0.077,853.4,-0.085
854.0,-0.078,854.0,-0.086
854.6,-0.077,854.6,-0.086
855.2,-0.077,855.2,-0.086
855.8,-0.076,855.8,-0.085
856.4,-0.077,856.4,-0.086
857.0,-0.077,857.0,-0.085
857.6,-0.077,857.6,-0.085
858.2,-0.077,858.2,-0.085
858.8,-0.077,858.8,-0.084
859.4,-0.077,859.4,-0.084
860.0,-0.077,860.0,-0.085
860.6,-0.076,860.6,-0.085
861.2,-0.076,861.2,-0.084
861.8,-0.076,861.8,-0.083
862.4,-0.077,862.4,-0.084
863.0,-0.077,863.0,-0.084
863.6,-0.076,863.6,-0.084
864.2,-0.075,864.2,-0.084
864.8,-0.076,864.8,-0.084
865.4,-0.076,865.4,-0.084
866.1,-0.076,866.1,-0.084
866.7,-0.075,866.7,-0.084
867.3,-0.074,867.3,-0.083
867.9,-0.074,867.9,-0.082
868.5,-0.074,868.5,-0.083
869.1,-0.074,869.1,-0.082
869.7,-0.074,869.7,-0.082
870.3,-0.074,870.3,-0.082
870.9,-0.074,870.9,-0.082
871.5,-0.074,871.5,-0.082
872.1,-0.073,872.1,-0.082
872.7,-0.072,872.7,-0.081
873.3,-0.071,873.3,-0.080
873.9,-0.071,873.9,-0.080
874.5,-0.071,874.5,-0.080
875.1,-0.071,875.1,-0.080
875.7,-0.071,875.7,-0.080
876.3,-0.071,876.3,-0.080
876.9,-0.070,876.9,-0.079
877.5,-0.070,877.5,-0.078
878.1,-0.070,878.1,-0.079
878.7,-0.070,878.7,-0.079
879.3,-0.070,879.3,-0.079
879.9,-0.069,879.9,-0.078
880.5,-0.069,880.5,-0.078
881.1,-0.068,881.1,-0.078
881.7,-0.068,881.7,-0.078
882.3,-0.069,882.3,-0.079
882.9,-0.069,882.9,-0.079
883.5,-0.068,883.5,-0.078
884.1,-0.068,884.1,-0.077
884.7,-0.067,884.7,-0.077
885.3,-0.067,885.3,-0.077
885.9,-0.066,885.9,-0.076
886.5,-0.066,886.5,-0.076
887.1,-0.066,887.1,-0.075
887.7,-0.066,887.7,-0.075
888.3,-0.065,888.3,-0.074
888.9,-0.064,888.9,-0.072
889.5,-0.064,889.5,-0.071
890.1,-0.063,890.1,-0.070
890.7,-0.060,890.7,-0.068
891.3,-0.058,891.3,-0.066
891.9,-0.055,891.9,-0.063
892.5,-0.052,892.5,-0.061
893.1,-0.050,893.1,-0.059
893.7,-0.048,893.7,-0.057
894.3,-0.046,894.3,-0.055
894.9,-0.044,894.9,-0.053
895.5,-0.042,895.5,-0.051
896.1,-0.038,896.1,-0.048
896.7,-0.036,896.7,-0.045
897.3,-0.033,897.3,-0.043
897.9,-0.030,897.9,-0.041
898.5,-0.028,898.5,-0.039
899.1,-0.026,899.1,-0.036
899.7,-0.026,899.7,-0.034
